  Detailed Percentile spectrum:
       Value   Percentile   TotalCount 1/(1-Percentile)

       0.523     0.000000            1         1.00
       1.648     0.100000         2455         1.11
       2.871     0.200000         4898         1.25
       7.747     0.300000         7348         1.43
      13.127     0.400000         9795         1.67
      19.807     0.500000        12253         2.00
      23.999     0.550000        13471         2.22
      29.599     0.600000        14692         2.50
      35.327     0.650000        15920         2.86
      41.311     0.700000        17142         3.33
      51.007     0.750000        18369         4.00
      56.703     0.775000        18978         4.44
      63.295     0.800000        19595         5.00
      67.519     0.825000        20201         5.71
      73.727     0.850000        20814         6.67
      79.423     0.875000        21426         8.00
      81.663     0.887500        21740         8.89
      84.159     0.900000        22043        10.00
      86.399     0.912500        22348        11.43
      90.239     0.925000        22650        13.33
      94.207     0.937500        22961        16.00
      95.871     0.943750        23110        17.78
      98.687     0.950000        23263        20.00
     101.439     0.956250        23423        22.86
     103.103     0.962500        23571        26.67
     105.535     0.968750        23725        32.00
     106.943     0.971875        23802        35.56
     107.711     0.975000        23876        40.00
     108.287     0.978125        23951        45.71
     109.695     0.981250        24031        53.33
     111.359     0.984375        24106        64.00
     111.999     0.985938        24147        71.11
     112.383     0.987500        24184        80.00
     112.831     0.989062        24222        91.43
     113.215     0.990625        24258       106.67
     114.239     0.992188        24295       128.00
     115.263     0.992969        24314       142.22
     116.351     0.993750        24336       160.00
     117.055     0.994531        24355       182.86
     117.503     0.995313        24372       213.33
     117.759     0.996094        24394       256.00
     117.887     0.996484        24408       284.44
     117.951     0.996875        24413       320.00
     118.015     0.997266        24420       365.71
     118.143     0.997656        24431       426.67
     118.271     0.998047        24440       512.00
     118.335     0.998242        24443       568.89
     118.399     0.998437        24449       640.00
     118.463     0.998633        24454       731.43
     118.591     0.998828        24460       853.33
     118.655     0.999023        24463      1024.00
     118.719     0.999121        24467      1137.78
     118.719     0.999219        24467      1280.00
     118.847     0.999316        24471      1462.86
     118.911     0.999414        24472      1706.67
     119.039     0.999512        24475      2048.00
     119.167     0.999561        24476      2275.56
     119.359     0.999609        24478      2560.00
     119.359     0.999658        24478      2925.71
     119.423     0.999707        24480      3413.33
     119.487     0.999756        24482      4096.00
     119.487     0.999780        24482      4551.11
     119.487     0.999805        24482      5120.00
     119.487     0.999829        24482      5851.43
     119.743     0.999854        24484      6826.67
     119.743     0.999878        24484      8192.00
     119.743     0.999890        24484      9102.22
     119.743     0.999902        24484     10240.00
     119.743     0.999915        24484     11702.86
     120.063     0.999927        24485     13653.33
     120.063     0.999939        24485     16384.00
     120.063     0.999945        24485     18204.44
     120.063     0.999951        24485     20480.00
     120.063     0.999957        24485     23405.71
     120.255     0.999963        24486     27306.67
     120.255     1.000000        24486          inf
